#Wave		#Intensity
1883.957031	49.899372
1882.277344	69.556702
1880.597656	81.636208
1878.916016	83.130363
1877.236328	72.534752
1875.554688	75.541000
1873.873047	72.503975
1872.191406	63.427513
1870.509766	67.943626
1868.826172	60.381508
1867.142578	61.877899
1865.458984	75.444817
1863.775391	70.903061
1862.091797	66.363220
1860.408203	46.745964
1858.722656	72.365448
1857.037109	66.320885
1855.351563	55.757969
1853.666016	60.266052
1851.980469	52.721569
1850.292969	52.710342
1848.607422	52.699112
1846.919922	48.171780
1845.232422	64.717033
1843.542969	76.741051
1841.855469	49.645382
1840.166016	52.642963
1838.478516	58.646786
1836.789063	69.158371
1835.097656	46.596779
1833.408203	54.100838
1831.716797	76.626488
1830.027344	63.090683
1828.335938	66.080879
1826.644531	70.571312
1824.951172	42.033493
1823.259766	75.043762
1821.566406	60.022167
1819.873047	54.008396
1818.179688	50.997013
1816.486328	43.488144
1814.792969	67.467155
1813.097656	68.951653
1811.402344	68.936890
1809.707031	58.433968
1808.011719	77.895264
1806.316406	59.906590
1804.619141	58.396400
1802.923828	22.455338
1801.226563	44.901039
1799.529297	56.862450
1797.830078	62.834484
1796.132813	70.299683
1794.433594	68.789177
1792.734375	53.823444
1791.035156	70.254402
1789.335938	47.822506
1787.636719	46.318096
1785.935547	37.345276
1784.234375	70.194023
1782.533203	64.206245
1780.832031	26.871252
1779.130859	70.148727
1777.429688	61.180405
1775.726563	79.069839
1774.023438	71.595001
1772.320313	61.140892
1770.617188	65.600487
1768.912109	68.567543
1767.207031	52.159718
1765.503906	47.678604
1763.798828	80.440300
1762.091797	93.826775
1760.386719	71.471649
1758.679688	50.614826
1756.974609	66.975754
1755.267578	72.913414
1753.560547	69.922256
1751.851563	71.394547
1750.144531	52.047276
1748.435547	47.575802
1746.726563	63.916168
1745.017578	63.902351
1743.308594	57.945419
1741.597656	77.243851
1739.888672	49.009533
1738.177734	66.816727
1736.466797	72.740250
1734.753906	80.145370
1733.042969	31.160898
1731.330078	56.374176
1729.619141	56.361969
1727.906250	43.003765
1726.191406	68.198090
1724.478516	45.949623
1722.763672	63.722759
1721.050781	71.116959
1719.335938	66.657692
1717.621094	53.314587
1715.904297	56.264301
1714.189453	68.094635
1712.472656	66.599861
1710.755859	63.626053
1709.039063	54.736115
1707.322266	62.119392
1705.603516	60.627190
1703.886719	54.700455
1702.167969	66.513123
1700.449219	73.887405
1698.730469	60.574501
1697.009766	63.515541
1695.291016	63.501728
1693.570313	62.011452
1691.849609	50.188824
1690.128906	63.460289
1688.406250	73.774971
1686.685547	56.056774
1684.962891	73.742851
1683.240234	76.675865
1681.517578	58.968586
1679.792969	58.955738
1678.070313	58.942890
1676.345703	54.510288
1674.621094	69.227699
1672.896484	60.376953
1671.171875	57.419212
1669.445313	58.878651
1667.720703	44.149353
1665.994141	63.266930
1664.267578	69.137131
1662.539063	45.591133
1660.812500	61.755142
1659.083984	51.451382
1657.355469	66.137321
1655.626953	58.775887
1653.898438	77.861031
1652.169922	70.500237
1650.439453	80.763863
1648.708984	92.491104
1646.978516	46.969334
1645.248047	64.568710
1643.517578	77.758926
1641.785156	82.142395
1640.052734	65.992836
1638.320313	67.444580
1636.587891	77.690865
1634.855469	48.362965
1633.121094	61.539383
1631.386719	58.596096
1629.652344	84.945724
1627.917969	64.427460
1626.183594	71.733032
1624.447266	74.644547
1622.712891	55.605309
1620.976563	62.907993
1619.240234	62.894196
1617.501953	80.428413
1615.765625	73.100693
1614.027344	80.393112
1612.289063	61.377628
1610.550781	70.130455
1608.812500	43.821911
1607.072266	90.545387
1605.333984	77.384697
1603.593750	74.448158
1601.853516	65.675117
1600.111328	75.874565
1598.371094	72.940269
1596.628906	72.924232
1594.886719	78.740845
1593.144531	65.602936
1591.402344	62.673462
1589.660156	69.945679
1587.916016	74.300926
1586.171875	67.001770
1584.427734	66.987015
1582.683594	65.516350
1580.937500	93.158279
1579.193359	80.040260
1577.447266	97.482109
1575.701172	77.095718
1573.955078	93.076202
1572.207031	94.509674
1570.460938	66.869026
1568.712891	85.747879
1566.964844	91.541100
1565.216797	76.993774
1563.466797	81.333961
1561.718750	62.439083
1559.968750	95.815582
1558.218750	92.891563
1556.468750	81.262177
1554.716797	104.456863
1552.966797	89.929100
1551.214844	104.410721
1549.462891	91.339195
1547.710938	89.869507
1545.957031	72.459389
1544.205078	97.074120
1542.451172	75.324448
1540.697266	76.756020
1538.943359	99.905540
1537.187500	89.750343
1535.433594	83.941422
1533.677734	78.135063
1531.921875	111.390152
1530.166016	75.207863
1528.410156	82.421143
1526.652344	92.522545
1524.894531	109.846184
1523.136719	93.926582
1521.378906	72.235214
1519.621094	99.662506
1517.861328	88.087906
1516.101563	80.849655
1514.341797	109.700211
1512.582031	98.131058
1510.822266	79.353104
1509.060547	93.760139
1507.298828	87.970764
1505.539063	72.091187
1503.775391	106.671280
1502.013672	110.971153
1500.250000	100.860474
1498.488281	80.670464
1496.724609	100.815681
1494.960938	99.353394
1493.195313	84.935478
1491.431641	86.355873
1489.666016	102.165077
1487.900391	94.949242
1486.134766	94.928139
1484.367188	94.907036
1482.601563	99.198929
1480.833984	109.238289
1479.066406	87.658600
1477.298828	110.626404
1475.529297	93.365143
1473.761719	110.577179
1471.992188	106.245323
1470.222656	114.834244
1468.453125	90.411835
1466.681641	117.652687
1464.912109	117.626488
1463.140625	103.258789
1461.369141	123.309410
1459.597656	113.247353
1457.824219	101.756592
1456.052734	98.868164
1454.279297	131.794830
1452.505859	103.120789
1450.732422	115.985016
1448.957031	121.685524
1447.183594	114.502007
1445.408203	111.614548
1443.632813	141.633011
1441.857422	130.158875
1440.080078	117.259834
1438.304688	125.811729
1436.527344	125.783638
1434.750000	127.184593
1432.972656	101.439209
1431.193359	121.414177
1429.414063	124.243217
1427.636719	108.510056
1425.857422	118.477921
1424.076172	125.587067
1422.296875	122.705376
1420.515625	101.280632
1418.734375	128.355194
1416.953125	94.106087
1415.171875	84.106323
1413.388672	125.418655
1411.607422	146.763992
1409.824219	112.541359
1408.041016	115.364685
1406.255859	121.034607
1404.472656	128.125595
1402.687500	122.403709
1400.902344	113.838417
1399.117188	147.956787
1397.332031	113.787422
1395.544922	120.872047
1393.759766	135.062012
1391.972656	115.132332
1390.185547	123.632935
1388.396484	126.446716
1386.609375	126.418365
1384.820313	122.129677
1383.031250	144.818985
1381.242188	119.235939
1379.451172	120.628349
1377.662109	120.601280
1375.871094	146.107574
1374.080078	130.474564
1372.289063	124.773735
1370.496094	138.921371
1368.705078	134.638443
1366.912109	126.106628
1365.119141	124.661690
1363.326172	128.882568
1361.531250	109.029976
1359.738281	110.421127
1357.943359	144.364410
1356.148438	128.766739
1354.353516	125.908394
1352.556641	117.393784
1350.759766	125.851768
1348.964844	128.650955
1347.166016	128.622025
1345.369141	110.222641
1343.572266	117.261803
1341.773438	146.897385
1339.974609	139.803528
1338.175781	151.066772
1336.376953	145.386673
1334.576172	117.129875
1332.775391	118.514374
1330.974609	159.394150
1329.173828	129.742981
1327.373047	126.893890
1325.570313	126.865295
1323.767578	118.380920
1321.964844	132.444031
1320.162109	138.048813
1318.359375	126.750938
1316.554688	142.210648
1314.750000	119.655228
1312.945313	132.294754
1311.140625	108.344658
1309.335938	125.201286
1307.529297	137.830978
1305.722656	126.550903
1303.916016	106.841080
1302.109375	119.466339
1300.300781	120.844528
1298.492188	129.246353
1296.685547	129.217163
1294.875000	131.996399
1293.066406	116.523682
1291.257813	124.918846
1289.447266	134.713470
1287.636719	129.071228
1285.826172	112.210480
1284.013672	134.622131
1282.203125	128.983704
1280.390625	133.159576
1278.578125	131.728088
1276.765625	131.698288
1274.951172	123.264122
1273.138672	135.839935
1271.324219	123.208336
1269.509766	107.782890
1267.693359	155.340164
1265.878906	124.523819
1264.062500	111.906174
1262.246094	132.858490
1260.429688	121.642845
1258.613281	132.798309
1256.794922	129.973099
1254.978516	156.491272
1253.160156	159.249649
1251.341797	118.711861
1249.521484	150.799698
1247.703125	142.389648
1245.882813	152.126984
1244.062500	119.999565
1242.240234	119.972343
1240.419922	129.708099
1238.597656	118.523521
1236.777344	129.649246
1234.953125	140.769913
1233.130859	115.655945
1231.308594	143.492264
1229.484375	119.781868
1227.660156	133.679626
1225.835938	128.080551
1224.011719	114.132820
1222.185547	107.149147
1220.359375	107.124802
1218.533203	115.445953
1216.707031	127.935104
1214.880859	109.832344
1213.052734	132.046844
1211.224609	125.068565
1209.396484	131.986786
1207.568359	131.956772
1205.738281	144.425079
1203.910156	112.459328
1202.080078	123.538307
1200.250000	122.122437
1198.417969	141.518784
1196.587891	120.679718
1194.755859	124.812668
1192.923828	130.330215
1191.091797	120.597305
1189.259766	120.569832
1187.425781	138.554443
1185.591797	146.834259
1183.757813	128.796921
1181.923828	128.767563
1180.087891	119.048248
1178.253906	143.932510
1176.417969	128.679535
1174.582031	136.950195
1172.744141	127.237823
1170.908203	125.826103
1169.070313	129.944565
1167.232422	132.679062
1165.394531	132.648788
1163.556641	150.577271
1161.716797	117.395844
1159.876953	121.511475
1158.037109	151.854675
1156.197266	133.877625
1154.355469	142.126251
1152.515625	128.298279
1150.673828	140.682098
1148.832031	132.376419
1146.988281	139.239197
1145.146484	139.207382
1143.302734	146.065445
1141.458984	148.787369
1139.615234	159.772110
1137.771484	145.965271
1135.925781	151.438751
1134.080078	154.156921
1132.234375	136.232529
1130.388672	130.698273
1128.541016	136.170197
1126.695313	145.765015
1124.847656	162.229568
1122.998047	149.821823
1121.150391	148.413315
1119.302734	152.500977
1117.453125	175.816711
1115.603516	190.882217
1113.753906	183.973801
1111.902344	175.695892
1110.050781	189.378738
1108.201172	198.939301
1106.347656	181.061844
1104.496094	211.190384
1102.644531	200.173553
1100.791016	189.161743
1098.937500	215.156387
1097.083984	213.736923
1095.228516	175.333649
1093.375000	183.510300
1091.519531	184.837341
1089.664063	199.852280
1087.808594	192.963730
1085.951172	217.547424
1084.093750	164.149033
1082.236328	177.787277
1080.378906	191.419250
1078.521484	188.641342
1076.662109	169.464874
1074.804688	202.218048
1072.945313	188.511322
1071.083984	166.616638
1069.224609	185.693878
1067.363281	169.270187
1065.501953	188.338013
1063.640625	182.836884
1061.779297	165.061005
1059.916016	167.750671
1058.054688	166.348572
1056.191406	156.767899
1054.326172	162.183350
1052.462891	144.432587
1050.597656	163.470947
1048.732422	147.089966
1046.867188	134.801422
1045.001953	145.660904
1043.134766	144.266342
1041.269531	136.068970
1039.402344	149.641373
1037.535156	142.806580
1035.666016	116.938423
1033.796875	125.068077
1031.929688	116.884506
1030.060547	103.269463
1028.189453	131.774048
1026.320313	126.310921
1024.449219	134.428986
1022.578125	142.543304
1020.707031	134.366959
1018.833984	156.046799
1016.962891	118.025543
1015.089844	142.411743
1013.216797	115.259071
1011.343750	117.943802
1009.468750	112.495110
1007.593750	132.794861
1005.718750	130.054703
1003.843750	155.758698
1001.968750	136.765152
1000.091797	128.610748
998.214844	148.883286
996.337891	151.555191
994.460938	148.814438
992.583984	127.139282
990.705078	120.348709
988.826172	146.007339
986.947266	132.457474
985.066406	139.183289
983.187500	120.237335
981.306641	152.625549
979.425781	174.195892
977.544922	147.154694
975.662109	151.169800
973.779297	151.134781
971.896484	153.797974
970.013672	140.274414
968.130859	149.681259
966.246094	179.306244
964.361328	167.133972
962.476563	171.137848
960.591797	157.625870
958.705078	158.936218
956.820313	162.939163
954.933594	168.286530
953.044922	161.517578
951.158203	173.591095
949.269531	165.478668
947.382813	172.165466
945.492188	166.746567
943.603516	176.118774
941.714844	137.098801
939.824219	177.380753
937.933594	165.248199
936.042969	197.445862
934.150391	162.485687
932.257813	162.447922
930.367188	154.356766
928.472656	165.056229
926.580078	166.359451
924.687500	175.709824
922.792969	170.305008
920.898438	167.584045
919.001953	159.502884
917.107422	178.226440
915.210938	175.505478
913.314453	166.088638
911.417969	155.337067
909.521484	161.994888
907.623047	171.326569
905.724609	163.257599
903.826172	155.192352
901.927734	161.843964
900.029297	145.759338
898.128906	188.507111
896.228516	155.047699
894.328125	157.684158
892.425781	173.679306
890.525391	188.331314
888.623047	176.269028
886.720703	166.882477
884.816406	168.178268
882.914063	162.801254
881.009766	140.083130
879.105469	170.728119
877.201172	156.019730
875.294922	173.314758
873.390625	178.605774
871.484375	175.898911
869.578125	194.509384
867.669922	174.484741
865.763672	205.071518
863.855469	171.740524
861.947266	195.658539
860.037109	207.589066
858.128906	187.584686
856.218750	204.831787
854.308594	200.794556
852.398438	237.972275
850.486328	221.966843
848.576172	223.243698
846.664063	209.906219
844.751953	207.200638
842.837891	228.398468
840.925781	213.741486
839.011719	208.382294
837.097656	228.237930
835.183594	237.470993
833.267578	210.888458
831.353516	269.184387
829.437500	232.001083
827.519531	229.295837
825.603516	249.118515
823.685547	239.786545
821.767578	251.650543
819.849609	243.646484
817.931641	267.418640
816.011719	242.208527
814.093750	267.293060
812.173828	277.813629
810.251953	298.910156
808.332031	375.533325
806.410156	528.795837
804.488281	1025.622803
802.566406	1716.457153
800.642578	2105.765381
798.720703	2210.929688
796.796875	2286.994873
794.873047	2262.694580
792.947266	2464.093750
791.023438	2986.037109
789.097656	4481.299316
787.171875	6358.332520
785.246094	7269.287109
783.318359	7851.564453
781.390625	8057.950684
779.462891	7775.394531
777.535156	7272.977051
775.607422	6189.989746
773.677734	4836.270508
771.748047	3784.644531
769.818359	2976.990234
767.888672	2584.186279
765.957031	2177.097412
764.025391	1860.946045
762.093750	1723.762817
760.162109	1622.136719
758.228516	1655.923584
756.296875	1776.412598
754.363281	1949.388794
752.427734	1969.940918
750.494141	1905.139160
748.558594	1688.097900
746.623047	1465.909424
744.687500	1310.740601
742.751953	1217.296997
740.814453	1329.792236
738.876953	1290.143921
736.939453	1486.460449
735.001953	1420.583618
733.062500	1400.594482
731.123047	1503.743530
729.183594	1813.755737
727.244141	2538.656738
725.302734	3649.354248
723.363281	5014.710449
721.421875	6336.244141
719.478516	7445.251465
717.537109	7597.795898
715.593750	6848.161621
713.650391	5887.133301
711.707031	5246.721680
709.763672	4558.273438
707.818359	4241.101074
705.873047	3961.948486
703.927734	3669.872559
701.982422	3504.542236
700.035156	3335.375244
698.087891	3188.466553
696.140625	3085.973633
694.193359	3052.640625
692.244141	2908.510254
690.294922	2851.773926
688.345703	2771.609131
686.396484	2767.041748
684.447266	2732.520020
682.496094	2688.899658
680.544922	2627.074219
678.593750	2442.935791
676.640625	2169.102051
674.689453	1873.283325
672.736328	1694.657471
670.783203	1428.998413
668.828125	1228.463867
666.875000	1035.822632
664.919922	758.815857
662.964844	618.339417
661.007813	467.540161
659.052734	379.136566
657.095703	336.208710
655.138672	310.172638
653.179688	316.586029
651.222656	297.052826
649.263672	289.200714
647.304688	280.055786
645.345703	286.470123
643.384766	264.370789
641.423828	252.646973
639.462891	275.902283
637.501953	244.756165
635.541016	251.171127
633.578125	256.288605
631.615234	240.698364
629.652344	240.640778
627.689453	274.213104
625.724609	294.837830
623.759766	310.281311
621.794922	312.792084
619.828125	316.593811
617.863281	368.194366
615.896484	413.312134
613.929688	464.864716
611.960938	557.703918
609.994141	582.092957
608.025391	730.345032
606.056641	878.525879
604.087891	888.633057
602.117188	787.843933
600.146484	670.344543
598.175781	619.919800
596.205078	587.558289
594.232422	529.448364
592.261719	540.912109
590.289063	517.605774
588.314453	520.055908
586.341797	521.217834
584.367188	449.040192
582.392578	474.658936
580.417969	474.544739
578.441406	455.144745
576.466797	460.176849
574.490234	458.780945
572.511719	438.113831
570.535156	486.818604
568.556641	487.985504
566.578125	510.977417
564.599609	496.735168
562.621094	440.152679
560.640625	450.310028
558.660156	451.484039
556.679688	459.069031
554.697266	461.522247
552.716797	493.453278
550.734375	485.645813
548.751953	475.279938
546.767578	440.584381
544.785156	449.441162
542.800781	526.141541
540.816406	734.628357
538.830078	991.636414
536.845703	1068.149902
534.859375	1128.000366
532.873047	1129.006104
530.884766	1075.044556
528.898438	1055.614624
526.910156	1082.190186
524.921875	1078.096069
522.933594	1035.692017
520.943359	1035.441162
518.953125	1088.800537
516.962891	1269.746704
514.972656	1379.159180
512.980469	1506.375610
510.988281	1639.906006
508.996094	1774.646484
507.003906	1829.022705
505.009766	2008.250854
503.017578	2122.419678
501.021484	2141.009033
499.027344	2183.782471
497.033203	2216.350830
495.037109	2138.176025
493.041016	2133.838867
491.042969	2156.217773
489.046875	2162.052246
487.048828	2143.725586
485.050781	2215.660889
483.052734	2281.206543
481.052734	2290.815674
479.052734	2376.634521
477.052734	2379.865479
475.052734	2504.978760
473.050781	2638.916260
471.050781	2795.630127
469.048828	3049.957275
467.044922	3348.553711
465.042969	3472.008789
463.039063	3261.979004
461.035156	3221.891357
459.031250	3360.491455
457.025391	3439.481934
455.019531	3433.575439
453.013672	3347.899414
451.007813	3272.392090
449.000000	3155.156250
446.994141	2991.161133
444.984375	2944.889893
442.976563	2813.907715
440.968750	2698.161377
438.958984	2658.314941
436.949219	2715.796631
434.937500	2790.937744
432.927734	3071.931885
430.916016	3370.467285
428.904297	3668.856201
426.892578	4023.897217
424.878906	4152.885254
422.865234	4219.991699
420.851563	4495.174805
418.837891	4717.261719
416.822266	5336.344727
414.806641	6302.978027
412.791016	8446.006836
410.775391	11991.314453
408.757813	22275.265625
406.740234	87981.210938
404.722656	416083.437500
402.705078	794556.187500
400.685547	479726.093750
398.666016	97897.210938
396.646484	27042.494141
394.626953	13284.069336
392.605469	8802.330078
390.583984	6430.161621
388.562500	4864.461426
386.541016	3892.368164
384.517578	3169.381836
382.494141	2655.145996
380.470703	2331.935791
378.447266	2121.813721
376.421875	1914.304199
374.396484	1908.814697
372.371094	2265.687256
370.343750	4080.237793
368.318359	9320.193359
366.291016	15157.700195
364.261719	13862.520508
362.234375	9150.481445
360.205078	6784.479004
358.175781	5353.392090
356.146484	4348.476074
354.115234	3450.395996
352.085938	2875.451416
350.054688	2538.373047
348.021484	2260.217285
345.990234	2018.443359
343.957031	1914.234131
341.923828	1798.833618
339.890625	1738.440918
337.855469	1663.095215
335.820313	1507.897949
333.785156	1411.431152
331.750000	1312.516968
329.712891	1194.941650
327.675781	1102.365112
325.638672	1080.896851
323.601563	1044.482422
321.562500	943.289307
319.523438	920.630432
317.484375	907.946533
315.445313	930.133179
313.404297	877.617798
311.363281	827.617554
309.322266	844.830383
307.279297	813.521790
305.238281	814.562439
303.195313	887.713684
301.150391	878.791138
299.107422	1006.567322
297.062500	1197.640137
295.017578	1435.815430
292.972656	1821.639160
290.925781	2391.001953
288.878906	2983.660889
286.832031	3213.705811
284.785156	3294.774658
282.736328	3315.033203
280.687500	3487.786621
278.638672	3557.568604
276.589844	3602.529785
274.539063	3698.264893
272.488281	3627.973877
270.437500	3617.157471
268.386719	3624.916016
266.333984	3761.391846
264.281250	3743.124023
262.228516	3994.549561
260.173828	4226.059570
258.119141	4452.507324
256.064453	4532.974121
254.009766	4251.298340
251.955078	3952.465820
249.898438	3674.781738
247.841797	3562.715088
245.783203	3469.223145
243.726563	3463.412109
241.667969	3539.046387
239.609375	3544.322754
237.548828	3732.132568
235.488281	3870.525391
233.427734	3941.047363
231.367188	4018.927979
229.306641	4142.356445
227.244141	4337.166992
225.181641	4449.368164
223.119141	4662.468750
221.054688	4903.770996
218.990234	5288.925293
216.925781	5655.430176
214.861328	6105.384766
212.794922	7198.202148
210.728516	7984.367188
208.662109	7505.493652
206.595703	6321.595215
204.527344	5417.136719
202.458984	4942.958496
200.390625	4620.033691
198.320313	4364.781250
196.251953	4227.461914
194.181641	3941.766846
192.109375	3902.744141
190.039063	3770.549805
187.966797	3648.229004
185.894531	3700.001221
183.820313	3598.588867
181.748047	3674.845215
179.673828	3601.656250
177.597656	3420.763672
175.523438	3238.738525
173.447266	3159.596436
171.371094	3106.185547
169.294922	2946.393555
167.216797	2916.295898
165.140625	2686.953125
163.060547	2430.839600
160.982422	2122.318115
158.902344	1873.807983
156.824219	1725.563354
154.742188	1611.579224
152.662109	1484.226807
150.580078	1446.018921
148.498047	1376.111328
146.416016	1257.453613
144.332031	1119.347168
142.250000	1072.737671
140.164063	984.715881
138.080078	925.980469
135.994141	892.854858
133.908203	836.608398
131.822266	793.782654
129.736328	750.978821
127.648438	672.908691
125.560547	649.621948
123.472656	656.752258
121.382813	598.220459
119.292969	577.401733
117.203125	560.239441
115.113281	535.796082
113.021484	521.082458
110.929688	483.303986
108.837891	528.098145
106.746094	474.558990
104.652344	438.034851
102.558594	446.413452
100.462891	426.893982
98.369141	426.783813
96.273438	370.915131
94.177734	352.641907
92.080078	376.781067
89.984375	334.291626
87.886719	352.368500
85.787109	365.593658
83.689453	340.083557
81.589844	338.785553
79.490234	303.618408
77.390625	310.795654
75.289063	256.309753
73.187500	197.017242
71.085938	111.171074
68.982422	39.866234
66.878906	31.401606
64.775391	20.526487
62.671875	7.242760
60.566406	7.240878
58.462891	15.684490
56.355469	14.474225
54.250000	26.529175
52.142578	9.644462
50.035156	26.515364
47.927734	42.172543
45.818359	12.046158
43.708984	33.720448
41.599609	34.915642
39.490234	12.036736
37.378906	13.236953
35.267578	18.045677
33.156250	8.419116
31.042969	18.036247
28.929688	19.233635
26.816406	28.842907
24.703125	20.425047
22.587891	28.827812
20.472656	28.820265
18.357422	32.414303
16.240234	22.804087
14.125000	11.999004
12.007813	23.991714
9.888672	29.981775
7.769531	39.565556
5.652344	351.201935
3.531250	3052.137451
1.412109	2457.121582
-0.708984	1977.396973
-2.830078	227.502487
-4.953125	40.700260
-7.074219	40.689545
-9.197266	27.518032
-11.320313	32.295265
-13.445313	39.461586
-15.570313	32.278240
-17.695313	7.171050
-19.820313	21.507473
-21.947266	20.307251
-24.074219	13.136515
-26.201172	19.102610
-28.330078	29.839937
-30.458984	3.579845
-32.587891	14.315593
